

 \n INPUT PARAMETERS:\n
 RADIATION SCHEME:            4  streams\n
 w-grid:         111   290.000000       400.000000    
 equally spaced z-grid
 z-grid:          81   2.50000004E-02   80.0000000    
  measurement point: index           1  altitude=   2.50000004E-02
 idate =     20230317  esfact(1) =    1.00000000    
 air temperature: USSA, 1976
 air concentrations: USSA, 1976
 ozone profile: USSA, 1976
 DATAE1/SUN/susim_hi.flx
 DATAE1/SUN/atlas3_1994_317_a.dat        
 DATAE1/SUN/neckel.flx                   
 DATAE1/SUN/sao2010.solref.converted     
 aerosols:  Elterman (1968) continental profile
 solar zenith angle =    58.2999992    
 \n SPECTRAL IRRADIANCE (W m-2 nm-1):\n
 LOWER WVL  UPPER WVL  DIRECT     DIFFUSE DOWN  DIFFUSE UP  TOTAL DOWNWELLING
 290.00     291.00     0.000E+00  0.000E+00     0.000E+00   0.000E+00
 291.00     292.00     4.190E-10  1.281E-08     1.323E-09   1.323E-08
 292.00     293.00     2.837E-09  5.808E-08     6.092E-09   6.092E-08
 293.00     294.00     2.164E-08  3.222E-07     3.439E-08   3.439E-07
 294.00     295.00     8.817E-08  1.062E-06     1.150E-07   1.150E-06
 295.00     296.00     4.965E-07  4.981E-06     5.478E-07   5.478E-06
 296.00     297.00     1.696E-06  1.499E-05     1.669E-06   1.669E-05
 297.00     298.00     5.868E-06  4.721E-05     5.307E-06   5.307E-05
 298.00     299.00     1.153E-05  8.651E-05     9.805E-06   9.805E-05
 299.00     300.00     4.123E-05  2.923E-04     3.335E-05   3.335E-04
 300.00     301.00     5.572E-05  3.785E-04     4.342E-05   4.342E-04
 301.00     302.00     1.640E-04  1.073E-03     1.237E-04   1.237E-03
 302.00     303.00     2.665E-04  1.693E-03     1.959E-04   1.959E-03
 303.00     304.00     6.190E-04  3.831E-03     4.450E-04   4.450E-03
 304.00     305.00     8.172E-04  4.937E-03     5.754E-04   5.754E-03
 305.00     306.00     1.410E-03  8.354E-03     9.763E-04   9.763E-03
 306.00     307.00     1.674E-03  9.699E-03     1.137E-03   1.137E-02
 307.00     308.00     3.015E-03  1.721E-02     2.022E-03   2.022E-02
 308.00     309.00     3.729E-03  2.083E-02     2.456E-03   2.456E-02
 309.00     310.00     3.830E-03  2.106E-02     2.489E-03   2.489E-02
 310.00     311.00     5.851E-03  3.162E-02     3.747E-03   3.747E-02
 311.00     312.00     8.181E-03  4.336E-02     5.154E-03   5.154E-02
 312.00     313.00     9.072E-03  4.747E-02     5.655E-03   5.655E-02
 313.00     314.00     1.079E-02  5.524E-02     6.603E-03   6.603E-02
 314.00     315.00     1.204E-02  6.089E-02     7.293E-03   7.293E-02
 315.00     316.00     1.290E-02  6.380E-02     7.670E-03   7.670E-02
 316.00     317.00     1.403E-02  6.848E-02     8.251E-03   8.251E-02
 317.00     318.00     2.029E-02  9.666E-02     1.169E-02   1.169E-01
 318.00     319.00     1.729E-02  8.139E-02     9.868E-03   9.868E-02
 319.00     320.00     2.180E-02  1.004E-01     1.222E-02   1.222E-01
 320.00     321.00     2.744E-02  1.238E-01     1.513E-02   1.513E-01
 321.00     322.00     2.504E-02  1.118E-01     1.368E-02   1.368E-01
 322.00     323.00     2.474E-02  1.069E-01     1.316E-02   1.316E-01
 323.00     324.00     2.765E-02  1.186E-01     1.462E-02   1.462E-01
 324.00     325.00     3.302E-02  1.384E-01     1.714E-02   1.714E-01
 325.00     326.00     3.745E-02  1.531E-01     1.906E-02   1.906E-01
 326.00     327.00     4.807E-02  1.944E-01     2.425E-02   2.425E-01
 327.00     328.00     4.505E-02  1.777E-01     2.227E-02   2.227E-01
 328.00     329.00     4.239E-02  1.636E-01     2.060E-02   2.060E-01
 329.00     330.00     5.757E-02  2.194E-01     2.770E-02   2.770E-01
 330.00     331.00     5.267E-02  1.959E-01     2.486E-02   2.486E-01
 331.00     332.00     5.286E-02  1.924E-01     2.453E-02   2.453E-01
 332.00     333.00     5.404E-02  1.940E-01     2.480E-02   2.480E-01
 333.00     334.00     5.122E-02  1.797E-01     2.309E-02   2.309E-01
 334.00     335.00     5.845E-02  2.013E-01     2.597E-02   2.597E-01
 335.00     336.00     6.081E-02  2.059E-01     2.667E-02   2.667E-01
 336.00     337.00     4.819E-02  1.599E-01     2.081E-02   2.081E-01
 337.00     338.00     5.340E-02  1.735E-01     2.269E-02   2.269E-01
 338.00     339.00     5.783E-02  1.849E-01     2.427E-02   2.427E-01
 339.00     340.00     6.394E-02  2.007E-01     2.646E-02   2.646E-01
 340.00     341.00     6.917E-02  2.129E-01     2.821E-02   2.821E-01
 341.00     342.00     6.268E-02  1.897E-01     2.524E-02   2.524E-01
 342.00     343.00     7.054E-02  2.097E-01     2.803E-02   2.803E-01
 343.00     344.00     7.423E-02  2.166E-01     2.909E-02   2.909E-01
 344.00     345.00     5.268E-02  1.510E-01     2.037E-02   2.037E-01
 345.00     346.00     7.356E-02  2.075E-01     2.810E-02   2.810E-01
 346.00     347.00     6.958E-02  1.927E-01     2.623E-02   2.623E-01
 347.00     348.00     6.895E-02  1.878E-01     2.567E-02   2.567E-01
 348.00     349.00     7.689E-02  2.059E-01     2.828E-02   2.828E-01
 349.00     350.00     6.530E-02  1.720E-01     2.373E-02   2.373E-01
 350.00     351.00     9.266E-02  2.401E-01     3.327E-02   3.327E-01
 351.00     352.00     8.087E-02  2.061E-01     2.870E-02   2.870E-01
 352.00     353.00     7.389E-02  1.853E-01     2.592E-02   2.592E-01
 353.00     354.00     9.012E-02  2.225E-01     3.126E-02   3.126E-01
 354.00     355.00     9.880E-02  2.401E-01     3.389E-02   3.389E-01
 355.00     356.00     9.347E-02  2.236E-01     3.171E-02   3.171E-01
 356.00     357.00     8.778E-02  2.068E-01     2.946E-02   2.946E-01
 357.00     358.00     7.553E-02  1.752E-01     2.508E-02   2.508E-01
 358.00     359.00     5.898E-02  1.348E-01     1.938E-02   1.938E-01
 359.00     360.00     1.004E-01  2.261E-01     3.265E-02   3.265E-01
 360.00     361.00     9.414E-02  2.088E-01     3.030E-02   3.030E-01
 361.00     362.00     8.584E-02  1.877E-01     2.735E-02   2.735E-01
 362.00     363.00     1.019E-01  2.196E-01     3.216E-02   3.216E-01
 363.00     364.00     9.167E-02  1.947E-01     2.864E-02   2.864E-01
 364.00     365.00     1.011E-01  2.117E-01     3.127E-02   3.127E-01
 365.00     366.00     1.245E-01  2.570E-01     3.815E-02   3.815E-01
 366.00     367.00     1.331E-01  2.711E-01     4.042E-02   4.042E-01
 367.00     368.00     1.277E-01  2.565E-01     3.842E-02   3.842E-01
 368.00     369.00     1.133E-01  2.245E-01     3.379E-02   3.379E-01
 369.00     370.00     1.373E-01  2.684E-01     4.057E-02   4.057E-01
 370.00     371.00     1.258E-01  2.427E-01     3.685E-02   3.685E-01
 371.00     372.00     1.454E-01  2.767E-01     4.221E-02   4.221E-01
 372.00     373.00     1.084E-01  2.037E-01     3.121E-02   3.121E-01
 373.00     374.00     9.895E-02  1.835E-01     2.824E-02   2.824E-01
 374.00     375.00     1.096E-01  2.007E-01     3.103E-02   3.103E-01
 375.00     376.00     1.248E-01  2.256E-01     3.505E-02   3.505E-01
 376.00     377.00     1.258E-01  2.245E-01     3.503E-02   3.503E-01
 377.00     378.00     1.512E-01  2.665E-01     4.176E-02   4.176E-01
 378.00     379.00     1.662E-01  2.894E-01     4.556E-02   4.556E-01
 379.00     380.00     1.241E-01  2.134E-01     3.374E-02   3.374E-01
 380.00     381.00     1.505E-01  2.557E-01     4.062E-02   4.062E-01
 381.00     382.00     1.427E-01  2.395E-01     3.821E-02   3.821E-01
 382.00     383.00     9.586E-02  1.590E-01     2.549E-02   2.549E-01
 383.00     384.00     8.488E-02  1.392E-01     2.240E-02   2.240E-01
 384.00     385.00     1.284E-01  2.081E-01     3.366E-02   3.366E-01
 385.00     386.00     1.281E-01  2.052E-01     3.333E-02   3.333E-01
 386.00     387.00     1.317E-01  2.085E-01     3.401E-02   3.401E-01
 387.00     388.00     1.233E-01  1.931E-01     3.164E-02   3.164E-01
 388.00     389.00     1.246E-01  1.929E-01     3.175E-02   3.175E-01
 389.00     390.00     1.584E-01  2.424E-01     4.007E-02   4.007E-01
 390.00     391.00     1.567E-01  2.373E-01     3.940E-02   3.940E-01
 391.00     392.00     1.874E-01  2.805E-01     4.679E-02   4.679E-01
 392.00     393.00     1.416E-01  2.097E-01     3.512E-02   3.512E-01
 393.00     394.00     6.200E-02  9.085E-02     1.528E-02   1.528E-01
 394.00     395.00     1.470E-01  2.131E-01     3.600E-02   3.600E-01
 395.00     396.00     1.905E-01  2.732E-01     4.637E-02   4.637E-01
 396.00     397.00     1.126E-01  1.599E-01     2.725E-02   2.725E-01
 397.00     398.00     1.309E-01  1.839E-01     3.148E-02   3.148E-01
 398.00     399.00     2.265E-01  3.149E-01     5.414E-02   5.414E-01
 399.00     400.00     2.372E-01  3.265E-01     5.637E-02   5.637E-01
 \nWEIGHTED IRRADIANCES (W m-2)
 (with normalized action spectra)\n
   1 UV-B, 280-315 nm                          3.897E-01
   2 UV-B*, 280-320 nm                         8.867E-01
   3 UV-A, 315-400 nm                          2.457E+01
   4 vis+, > 400 nm                            0.000E+00
   5 Gaussian, 305 nm, 10 nm FWHM              1.404E-02
   6 Gaussian, 320 nm, 10 nm FWHM              1.279E-01
   7 Gaussian, 340 nm, 10 nm FWHM              2.551E-01
   8 Gaussian, 380 nm, 10 nm FWHM              3.507E-01
   9 RB Meter, model 501                       1.087E-01
  10 Eppley UV Photometer                      2.056E+01
  11 PAR, 400-700 nm, umol m-2 s-1             0.000E+00
  12 Exponential decay, 14 nm/10               1.388E-01
  13 DNA damage, in vitro (Setlow, 1974)       6.896E-04
  14 SCUP-mice (de Gruijl et al., 1993)        5.999E-02
  15 SCUP-human (de Gruijl and van der Leun,   1.191E-01
  16 Standard human erythema (Webb et al., 20  5.161E-02
  17 UV index (WMO, 1994; Webb et al., 2011)   2.064E+00
  18 Erythema, humans (Anders et al., 1995)    1.862E-04
  19 Occupational TLV (ACGIH, 1992)            1.130E-02
  20 Phytoplankton (Boucher et al., 1994)      1.124E-03
  21 Phytoplankton, phaeo (Cullen et al., 199  5.770E-04
  22 Phytoplankton, proro (Cullen et al., 199  4.985E-04
  23 Cataract, pig (Oriowo et al., 2001)       1.572E-01
  24 Plant damage (Caldwell, 1971)             3.949E-02
  25 Plant damage,Flint&Caldwell,2003,orig.    3.539E-01
  26 Plant damage,Flint&Caldwell,2003,ext390   5.334E-01
  27 Previtamin-D3 (CIE 2006)                  8.190E-02
  28 NMSC (CIE 2006)                           1.101E-01
  29 Ebola virus inactivation                  2.286E-01
